"Magnetic Susceptibility (emu/g Oe)(Temperature (K)), created by Plot Digitizer, 2.6.8",
"Date: 22/03/25, 9:15:01",
,
,
449,
Temperature (K),Magnetic Susceptibility (emu/g Oe)
3.4556,-7.35E-05
3.54826,-5.19E-05
3.61776,-2.16E-05
3.77992,8.64E-06
3.94209,8.64E-06
4.31274,1.30E-05
4.44015,1.30E-05
4.63707,1.30E-05
4.88031,4.32E-06
5.06564,1.30E-05
5.33205,4.32E-06
5.54054,0
5.85328,4.32E-06
6.17761,4.32E-06
6.23552,0
6.28185,8.64E-06
6.53668,0
6.79151,8.64E-06
6.80309,4.32E-06
1.81081,-0.000168519
1.96139,-0.00017284
2.07722,-0.000168519
2.20463,-0.000159877
2.28571,-0.000159877
2.42471,-0.000159877
2.51737,-0.000151235
2.61004,-0.000151235
2.61004,-0.000151235
2.72587,-0.000146914
2.74903,-0.000138272
2.85328,-0.000125309
2.92278,-0.000116667
3.00386,-0.000112346
3.05019,-0.000103704
3.13127,-9.07E-05
3.21236,-7.78E-05
3.28185,-6.91E-05
3.3166,-5.62E-05
3.42085,-3.02E-05
3.47876,-2.16E-05
3.53668,-8.64E-06
3.61776,-8.64E-06
3.69884,-8.64E-06
3.79151,-4.32E-06
3.88417,1.30E-05
4,4.32E-06
4.11583,4.32E-06
4.139,0
4.30116,8.64E-06
4.71815,4.32E-06
4.82239,4.32E-06
4.98456,4.32E-06
5.1583,4.32E-06
5.55212,4.32E-06
5.81853,-4.32E-06
5.92278,4.32E-06
6.13127,-8.64E-06
6.29344,8.64E-06
6.59459,-4.32E-06
6.74517,0
6.89575,0
3.11969,-0.00138704
3.17761,-0.00130062
3.20077,-0.00124012
3.22394,-0.00118827
3.25869,-0.0011321
3.29344,-0.00109753
3.32819,-0.00105
3.35135,-0.00101111
3.37452,-0.000980864
3.37452,-0.000972222
3.37452,-0.000950617
3.39768,-0.00092037
3.42085,-0.000911728
3.44402,-0.000890123
3.46718,-0.000851235
3.5251,-0.000803704
3.53668,-0.000769136
3.59459,-0.000725926
3.62934,-0.000695679
3.66409,-0.000669753
3.67568,-0.000639506
3.69884,-0.000609259
3.72201,-0.000591975
3.77992,-0.000535802
3.81467,-0.000509877
3.84942,-0.000492593
3.87259,-0.000458025
3.91892,-0.00043642
3.9305,-0.000397531
3.95367,-0.000375926
4,-0.000341358
4.04633,-0.000324074
4.0695,-0.000298148
4.11583,-0.000276543
4.16216,-0.000246296
4.20849,-0.00022037
4.38224,-0.000190123
4.33591,-0.00017284
4.40541,-0.000133951
4.55598,-9.51E-05
4.60232,-6.05E-05
4.74131,-5.19E-05
5.19305,0
4.93822,-3.02E-05
4.98456,-2.16E-05
5.14672,-1.73E-05
,
5.41313,0
5.57529,-4.32E-06
5.79537,0
6.02703,0
6.35135,0
6.50193,4.32E-06
6.75676,-1.30E-05
6.79151,4.32E-06
7.01158,4.32E-06
1.89189,-0.000980864
1.98456,-0.000954938
2.06564,-0.000890123
2.18147,-0.000877161
2.27413,-0.000846914
2.34363,-0.000816667
2.48263,-0.00074321
2.57529,-0.000704321
2.65637,-0.000643827
2.7722,-0.000535802
3.05019,-0.000458025
3.17761,-0.00039321
3.42085,-0.000302469
3.50193,-0.000285185
3.59459,-0.000241975
4.52124,-2.59E-05
3.861,-0.000181481
3.91892,-0.000151235
3.98842,-0.000146914
4.05792,-0.000138272
4.10425,-0.000125309
4.17375,-0.000108025
4.23166,-8.64E-05
4.31274,-6.05E-05
4.41699,-5.62E-05
4.49807,-4.32E-05
4.60232,-3.89E-05
4.77606,-2.59E-05
4.98456,-2.59E-05
4.99614,-1.30E-05
5.11197,-1.30E-05
5.28571,0
5.49421,8.64E-06
5.69112,8.64E-06
5.88803,8.64E-06
6.02703,0
6.36293,0
6.66409,8.64E-06
6.90734,-4.32E-06
6.97683,4.32E-06
3.49035,-0.00138272
3.51351,-0.00135247
3.51351,-0.00132654
3.5251,-0.00128333
3.53668,-0.00122284
3.57143,-0.00119259
3.57143,-0.00114506
3.60618,-0.00111481
3.60618,-0.00108457
3.65251,-0.00101111
3.67568,-0.00096358
3.69884,-0.000924691
3.71042,-0.000881482
3.71042,-0.000855556
3.75676,-0.000825309
3.96525,-0.000462346
3.75676,-0.000769136
3.79151,-0.000734568
3.80309,-0.000682716
3.83784,-0.000635185
3.861,-0.000604938
3.91892,-0.00057037
3.94209,-0.000518519
3.95367,-0.000501235
4.02317,-0.000432099
4.10425,-0.00039321
4.09266,-0.000367284
4.19691,-0.000298148
4.22008,-0.000259259
4.28958,-0.000207407
4.45174,-0.000155556
4.48649,-0.000112346
4.59073,-9.51E-05
4.69498,-7.35E-05
4.85714,-4.75E-05
4.92664,-4.75E-05
5.07722,-3.46E-05
5.18147,-1.30E-05
5.2973,-1.30E-05
5.45946,-1.30E-05
5.72587,-1.30E-05
6.08494,-1.30E-05
6.3861,-1.30E-05
6.53668,-1.30E-05
6.861,-1.30E-05
7.01158,-8.64E-06
1.89189,-0.00134815
1.96139,-0.00133519
2.07722,-0.00130062
2.19305,-0.00126173
2.26255,-0.0012142
2.32046,-0.00119259
2.42471,-0.00113642
2.51737,-0.00110185
2.67954,-0.0010284
2.72587,-0.000993827
2.89961,-0.000907407
2.95753,-0.000859877
3.08494,-0.000782099
3.18919,-0.000704321
3.27027,-0.000669753
3.3861,-0.000591975
3.42085,-0.000544444
3.59459,-0.000427778
3.71042,-0.00030679
3.84942,-0.000250617
3.96525,-0.000190123
4.01158,-0.00017716
4.0695,-0.000155556
4.12741,-0.000142593
4.15058,-0.00012963
4.19691,-0.000116667
4.27799,-8.64E-05
4.37066,-7.35E-05
4.42857,-6.05E-05
4.48649,-3.89E-05
4.60232,-3.46E-05
4.70656,-2.16E-05
4.86873,-1.30E-05
4.97297,-8.64E-06
5.13514,-4.32E-06
5.2278,-4.32E-06
5.49421,8.64E-06
5.87645,4.32E-06
6.02703,8.64E-06
6.2471,4.32E-06
6.44402,4.32E-06
6.59459,8.64E-06
6.82625,2.16E-05
6.95367,1.30E-05
6.98842,0
2.9807,-0.00137407
3.03861,-0.00132222
3.08494,-0.00122284
3.11969,-0.00118395
3.11969,-0.00113642
3.14286,-0.00111049
3.18919,-0.00106728
3.20077,-0.00101975
3.22394,-0.000998148
3.23552,-0.000976543
3.25869,-0.000937654
3.29344,-0.000898765
3.30502,-0.000881482
3.35135,-0.000859877
3.39768,-0.000820988
3.40927,-0.000773457
3.44402,-0.000747531
3.47876,-0.000708642
3.47876,-0.000674074
3.51351,-0.000639506
3.55985,-0.000617901
3.57143,-0.000579012
3.59459,-0.000561728
3.62934,-0.000531481
3.66409,-0.000505556
3.68726,-0.00047963
3.69884,-0.000458025
3.74517,-0.000423457
3.81467,-0.000388889
3.861,-0.000362963
3.87259,-0.00035
3.96525,-0.000302469
4.01158,-0.000272222
4.03475,-0.000254938
4.09266,-0.000229012
4.15058,-0.000190123
4.18533,-0.00017284
4.27799,-0.000146914
4.34749,-0.000125309
4.41699,-9.94E-05
4.67181,-4.32E-05
4.77606,-2.16E-05
4.99614,-1.30E-05
5.40154,-8.64E-06
5.67954,0
5.83012,4.32E-06
5.99228,4.32E-06
6.21236,0
6.39768,0
6.50193,4.32E-06
6.71042,0
6.79151,0
6.88417,-4.32E-06
7,1.30E-05
1.86873,-0.000916049
1.97297,-0.000890123
2.07722,-0.000859877
2.16988,-0.000825309
2.27413,-0.000799383
2.3668,-0.000756173
2.47104,-0.000734568
2.54054,-0.000691358
2.62162,-0.000652469
2.80695,-0.000561728
2.86486,-0.000522839
2.95753,-0.000483951
3.08494,-0.000427778
3.16602,-0.00039321
3.22394,-0.000375926
3.33977,-0.000345679
3.43243,-0.000311111
3.51351,-0.000280864
3.53668,-0.000259259
3.58301,-0.000237654
3.69884,-0.00022037
3.74517,-0.000203086
3.82625,-0.000181481
3.90734,-0.000151235
3.96525,-0.000146914
4.08108,-0.000125309
4.20849,-0.000103704
4.27799,-8.21E-05
4.33591,-7.35E-05
4.41699,-6.05E-05
4.5444,-4.75E-05
4.7529,-2.16E-05
5.27413,-2.16E-05
5.56371,-1.73E-05
5.93436,-4.32E-06
6.14286,-4.32E-06
6.3166,-4.32E-06
6.49035,-4.32E-06
6.77992,-4.32E-06
6.88417,-4.32E-06
7.02317,4.32E-06
2.87645,-0.00136111
2.88803,-0.00130926
2.9112,-0.00127901
2.94595,-0.00124012
2.99228,-0.00120988
3.00386,-0.00116667
3.00386,-0.00112346
3.06178,-0.00110617
3.06178,-0.0010716
3.09653,-0.00103272
3.13127,-0.00100247
3.13127,-0.000950617
3.15444,-0.000916049
3.18919,-0.000907407
3.21236,-0.000864198
3.22394,-0.00082963
3.29344,-0.000790741
3.30502,-0.000756173
3.32819,-0.00074321
3.37452,-0.000708642
3.37452,-0.000691358
3.40927,-0.00065679
3.44402,-0.00061358
3.49035,-0.000579012
3.54826,-0.000548765
3.55985,-0.00052716
3.60618,-0.000505556
3.61776,-0.000483951
3.64093,-0.000458025
3.68726,-0.00043642
3.71042,-0.000414815
3.73359,-0.00039321
3.75676,-0.000380247
3.79151,-0.000337037
3.80309,-0.00030679
3.87259,-0.000285185
3.96525,-0.000246296
4,-0.00022037
4.11583,-0.000194444
4.22008,-0.000168519
4.28958,-0.000142593
4.34749,-0.000133951
4.48649,-0.000108025
4.57915,-7.78E-05
4.63707,-6.91E-05
4.78764,-4.75E-05
4.91506,-3.02E-05
5.13514,-8.64E-06
5.32046,4.32E-06
5.49421,4.32E-06
5.65637,4.32E-06
5.72587,4.32E-06
5.7722,4.32E-06
5.94595,1.30E-05
6.13127,1.30E-05
6.44402,-4.32E-06
6.62934,1.30E-05
6.98842,8.64E-06
1.89189,-0.000769136
1.99614,-0.000747531
2.06564,-0.000734568
2.16988,-0.0007
2.27413,-0.000665432
2.47104,-0.000617901
2.56371,-0.000579012
2.69112,-0.000544444
2.73745,-0.000509877
2.81853,-0.000496914
2.9112,-0.000453704
3.71042,-0.000198765
3.05019,-0.000397531
3.08494,-0.000380247
3.14286,-0.000358642
3.2471,-0.000324074
3.35135,-0.000280864
3.49035,-0.00026358
3.49035,-0.000254938
3.57143,-0.000224691
3.60618,-0.000211728
3.66409,-0.000198765
3.75676,-0.00017284
3.76834,-0.000146914
3.83784,-0.000142593
3.88417,-0.00012963
3.94209,-0.000116667
4.03475,-9.94E-05
4.11583,-7.78E-05
4.20849,-7.35E-05
4.23166,-5.19E-05
4.39382,-5.62E-05
4.42857,-3.89E-05
4.64865,-3.02E-05
4.7529,-8.64E-06
4.86873,-1.30E-05
5.01931,0
5.2278,0
5.38996,0
5.55212,0
5.74903,8.64E-06
5.86486,4.32E-06
6.06178,4.32E-06
6.22394,-1.30E-05
6.46718,8.64E-06
6.62934,8.64E-06
6.83784,8.64E-06
7,-4.32E-06
